wavelength: 632.8 R: 400 r0: 10 LinSpaced num: 100 100
    555.489     1390.58     163.871     31.8159     22.2221     504.472     1571.22     104.973     17.6135     113.572      401.48     1456.74     161.686     16.0776     175.326     648.155     232.367     225.757     27.4694     56.6928     207.371     3668.73     6.71853  0.00176554     21.2258     4.93211     4505.25      673.12     10.2431     9.24268     32.3764      1983.6     320.004     11.6264     13.6021     167.788     1584.38     1280.21     140.457      109.61     174.051     22.6685     1002.89     437.838     252.793     44.7709     136.479     1523.74     517.341         110     110.216     517.399      1523.1     136.723     44.8887     252.654     437.007     1000.64     22.7863     174.264      109.27      139.42     1281.82     1584.81     168.221     13.3511     11.5427      321.38     1984.62     32.2119     9.25795     10.0264     671.485     4501.76     4.89698     21.1182  0.00327646     6.84175     3669.43     207.999     56.8381     27.7595     224.721     232.864     649.092     175.416     16.2866     160.968     1459.81     400.321     113.623     17.4454      103.94     1571.28     504.537     22.4892     32.1892      162.71     1387.94     558.712
    1390.58     1078.19     109.978  0.00220565     2.03285     1215.81     2051.91      125.55     10.6098     51.4498     26.6729     1917.27     312.157   0.0569932     29.3037     180.057     4721.28      6.1506     9.35796     19.5108      469.66      521.11     387.503     1.62005     67.1941     74.7375     1.46995     805.962      60.247     16.4855     74.7215      957.67     1231.05     4.84163     15.2105     15.7554     236.523     889.096     118.137     3.11947     12.0329     576.804     1871.26     350.216     61.1355     76.1684     66.3548     3493.68     376.922     282.094     283.241     377.424      3497.9     65.7655      76.284     61.2466     350.058     1873.83     577.778     12.0381     3.14951      118.24     888.235     236.231     15.7846     15.1532     4.75943     1230.37     955.357     75.2974     16.4647     60.2223     808.294     1.51287     74.9596     67.6764     1.65899      387.45     522.596     470.755     19.6766     9.46402     5.92285     4718.93     180.444     29.2335   0.0538362      311.91     1916.95     26.6709     51.1255     10.5609     126.355      2051.4     1216.23     2.05813 6.49866e-06     109.293     1079.56     1388.01
    163.871     109.978     182.167     68.1158     186.619      157.65     104.356     22.6898     38.2539      14.753     209.643     5.99676      318.03     17.9164      2.7109     63.1129     295.381      13.207     14.6307     77.2549     50.0596     156.539     97.6104     10.6442     37.1996     105.957     17.6362     21.8236     154.941     22.7311     65.0675     15.8614     16.5725     46.5868   0.0927353      27.304    0.508875     25.7476     48.0427     78.2289      24.345     146.547     44.8405     16.8206     76.1994     18.8577     121.887     159.971     54.6895 8.63369e-06 0.000221411     54.7372     159.833     121.643     19.0402     76.4527     16.6827     44.8212     146.305     24.3848     77.8859     47.8484      25.779    0.489067     27.4104    0.074599     46.6167      16.798     15.9115     65.2956     22.8089     154.916      21.583     17.7142     105.652     37.5754     10.6017     97.7588     155.865     50.5729     77.0996     14.7056      12.894     296.813     62.9375      2.6576     18.0819     317.296     5.91009     209.555     14.6756     38.4766     22.8749     104.566     158.111     186.447     68.1018      182.83     110.021     163.655
    31.8159  0.00220533     68.1157     3.78033     60.7728     44.5586     22.9439     155.613     0.26727    0.287981     10.8982     35.5205     3.09979     29.4243     14.7589     14.6032     100.796     91.9763   0.0638177    0.048982     140.966     87.4332     129.924   0.0171063     6.93628     246.247      10.658      41.394    0.801265     1.46949     32.2401     41.4476   0.0400106     10.5098     29.5659     18.5986     2.16914     24.1164     62.3326     40.3665     3.61479      4.3318     23.2433     67.2795     14.3493     1.04071     3.28661      86.353     16.2834     5.22501     5.22866     16.2341     86.4833     3.28402      1.0456     14.3342     67.4302     23.3002     4.33932     3.58214      40.474     62.3963     24.1806     2.15877     18.4568     29.6925     10.4737   0.0328338     41.5903     32.3215     1.49142    0.817317     41.3424     10.7088     246.305     6.97844   0.0192318     129.312     88.1242     141.178   0.0441384   0.0601339     92.3172     100.844     14.5657     14.8355     29.6405     3.01348     35.5899     10.9371     0.29406    0.308515     155.861     22.9029     44.7403     61.0554     4.08091     68.0322  0.00390352     32.1891
    22.2219     2.03286     186.619     60.7731     1.64909     118.367      16.751     185.139     2.72737     144.642     78.4652     14.7588     7.94959     3.00593     41.5914     165.512     72.3975     5.80535     2.67707     8.18465     38.4188      285.01     51.7761      39.248     36.5672     26.3017     30.6994     11.3998     110.924      84.495     249.402     570.835   0.0615217     1.59243     1.59897     13.7509      244.79     39.2252     2.57452     5.00489     120.037     108.357      58.158     1.14052     1.60938     14.5517     8.70254     56.2083     105.368   0.0719566   0.0720444     105.082     56.3477     8.68282     14.7512     1.64658     1.10611     58.1578     108.259     119.425     5.03154     2.53004     39.2213     245.008      13.696     1.55232     1.59411   0.0624221     570.785     249.351     84.6302     110.996     11.4304      30.619     26.1047     36.8748     38.9647     51.4955       285.2     38.2468      8.1549     2.68603     5.77106     72.2872     165.716     41.7223     2.99241      8.0977     14.9029      78.422     144.712     2.80836     184.872     16.6508     118.424     1.67845     61.0552     186.529     2.05689     22.4892
    504.475     1215.81     157.649     44.5586     118.367      214.79     317.548     225.576     16.4278      212.27     530.318     1182.47     14.7104     162.317     467.508     79.2062     204.551     5.33294      90.958     188.432     169.267     2072.86     334.414     1.10638    0.336083     103.993     1360.25     320.407     9.93485      18.936     59.4677     806.888     82.5014     138.626      41.081     119.591     1198.46     529.804     166.401     143.103     115.565     328.975     3.79387      392.32     193.629      233.14      404.15     631.509     81.3591      118.46     118.627     81.5682     630.827     404.149     232.522     193.494     392.167     3.86649     328.429     114.896     143.169     165.933     529.638     1196.92     119.643     40.9683     138.458     81.8879     806.315     59.5292     19.0276     9.84855     320.122     1360.83     104.557    0.346882     1.17724     335.115     2073.21      169.86     187.841     91.3343     5.20997     204.447     78.7628     466.733      162.64     14.8599     1182.05     529.209     211.829     16.3177      225.09     318.355     215.705     118.424     44.7401     157.164     1215.43     504.539
    1571.21     2051.91     104.357     22.9439     16.7511      317.55     4977.37      214.53      1.0312     36.8364     776.848     9366.94     158.735     30.4231     122.814      623.78     15587.6      71.864       101.7     7.21992      407.38     184.321   0.0579651     9.38636    0.257291     330.125     9356.98     297.113    0.724846     16.6777     193.018     4322.79     2055.31      122.04     38.2114     91.8362     479.981     3.92013     257.677      23.356     29.2855      161.86     48.2691     249.196     15.3838    0.119781      809.54     7456.83     449.796     1.61459      1.5981     449.808     7461.72     808.269    0.106021     15.3274     249.474     49.1204     161.366     29.1342     23.3169     257.844     4.14168       479.9     91.2458     38.3724     121.728     2055.23     4322.19     193.076     16.5464    0.786246     297.108     9358.24     331.158    0.278075     9.30998    0.102988     181.829     406.754     7.18791     101.246      72.158     15587.4     625.357     122.518      30.576      158.61     9367.81     775.199     36.9774     1.04755     215.217     4966.44     318.353     16.6508     22.9029     105.219     2058.83     1571.27
    104.972     125.551     22.6898     155.613     185.138     225.577     214.531     235.232     5.54512     10.8596      5.0192     134.706     58.3019     25.2968     80.3425     71.4007     407.967     115.305     15.6676     50.4833     56.8078     124.264     29.2955     13.2302     1.10291     336.668     111.662     33.4294     123.958     77.5374     8.07446     210.422     50.2148     57.0309     19.4024     184.085     212.245     79.3876    0.238307     6.86959     54.8172     162.008    0.819715       32.97     2.03179     4.95897     0.12941     337.256     4.18481     94.8224      94.869     4.16765     337.226    0.139529     4.89258     2.03147     32.8466    0.846891     161.761     55.3877     6.89672     0.25296     79.9657     212.135     184.138     19.4288     56.8541     50.4713     210.599      7.9734     77.5049      124.42      33.381     111.741     337.421     1.02075     13.2352     29.5534     123.669     56.6862     50.3881     15.9546     115.412     408.207     71.9172     80.7659     25.5048      58.049     134.623     4.83407     10.8098     5.63858     236.133     215.381     225.331     184.602      155.93     22.5039     125.567     104.793
    17.6136     10.6098     38.2539    0.267272     2.72737     16.4278     1.03119     5.54511     64.3504    0.702139     71.5206     130.274     28.9251     3.49586     148.859     22.3067     203.497     16.8466     85.9456     39.3111    0.117092     24.5016     3.39201     54.0807     64.9346     28.2223     1.16063     76.1466     0.55657     1.45825     4.11314       74.22     1.66378     14.2734     4.56095     217.425     82.9966     2.99183     25.0424    0.448132     80.0899      11.393     4.79762     3.36361     17.9037     185.827     25.6957     73.7868     45.7258      26.461     26.5349     45.8266     73.5509     25.3492     185.124     17.9406     3.38364     4.84091     11.4798     80.1389    0.437554     25.0424     2.93612     82.8039     217.312     4.49595     14.2023     1.65054     74.2967     4.13823      1.4327    0.529261     76.1948     1.15521     28.3443     64.7445     53.9429     3.36218     24.4297    0.122386      39.015     85.5151     16.8336     202.873     22.0505     148.806     3.54951     28.7495     129.739     70.9332    0.714197     64.3057     5.46294     1.04852     16.3422     2.69167    0.278351      38.571        10.7     17.3265
    113.571     51.4497     14.7529     0.28798     144.642     212.271     36.8362     10.8596    0.702146     61.6226     148.536     128.442     17.8113     39.9548     0.61067    0.126776     143.669     57.1973     34.7164     97.0915      134.34     49.8883     2.40549     50.4642    0.207863    0.057549     77.7133     44.0306     36.0662     5.41993     15.5777     141.808     3.98619     67.9033     77.7388     56.1024     157.489     21.3889     26.8484     73.3678     16.2591     121.752   0.0977075     51.7638     236.642    0.435739      10.457     287.785     93.0317     45.3968     45.2475     93.0936     288.687      10.434     0.44159     236.843      51.749   0.0922575     121.811     16.2843     73.0474     26.7457     21.4305     157.478     55.9745     77.7395     67.7642      4.0171     141.575     15.5845     5.32274     36.1406     43.9229     77.7238   0.0549699    0.208016     50.5463     2.38327     49.8275     134.268     96.6554     34.6459     57.3383     142.782    0.129784    0.618462     40.0716      17.667     128.342     148.273     61.8745    0.727888     10.9314     37.3285     212.433      144.62     0.30201     14.7503     51.3567     113.482
     401.48      26.673     209.642     10.8981     78.4649     530.316     776.849      5.0192     71.5202     148.536     1047.46     616.651     137.891     36.2176     104.087     92.9627     261.624     75.4648    0.155496      122.09     5.18668     1107.76     904.882     5.80425     13.1479     52.1998     234.445     456.195     24.3082     4.67931     45.5177      519.37     471.037     426.508     22.7655     6.52324    0.410232     71.9145     412.936     101.839     36.6921     51.8367     306.748    0.921088     29.2045     39.5086     37.8162     621.855     311.576      12.972     13.1225     311.704      621.43     38.0474     39.4352     29.3296    0.933303     307.207     51.6102      36.454     101.762     413.151     72.1139    0.420506     6.36173     22.4937     426.945     471.947     519.769     45.5301      4.7592     24.3587     455.154     234.618     52.0586     13.1459     5.91277     905.878      1107.4     5.11363     121.491    0.199672     75.5618     261.377     92.4034     103.916     36.6088     136.599      617.62     1050.56     148.631      71.614     5.11301     775.817     530.123     78.4392     10.9181     210.042     25.9765       402.3
    1456.74     1917.28     5.99675     35.5208     14.7589     1182.48     9366.94     134.706     130.273     128.443     616.649        2811     60.9233     48.5829     129.651     451.268     80639.5     33.8605     69.8785     104.658     365.085     16599.1    0.129062     45.9667     129.474     413.217     13029.7   0.0138439     27.0363     14.0675     159.539     45.0683     141.392     177.248     33.9701     286.105     135.182     3545.68     87.5933     134.196     206.725     495.474       18117     154.336     245.287     14.6394     270.241     23879.2     347.906      143.07     144.577     348.203     23903.2     269.996     14.6698     244.898     154.664     18149.6      494.65     205.748     134.244     87.7965     3539.86     134.078     285.965     33.9349     177.475      140.83     45.9752     158.599     14.3008     27.2558  0.00337744     13036.4     411.894     130.457      45.829   0.0772003     16647.4     364.198     105.047     70.0686     34.3123     80668.1      450.51     129.589     48.9626     60.7602     2796.25     616.372     129.111     130.172     135.344     9361.48     1182.55     14.7661     35.4606     5.99903      1912.8     1456.43
    161.686     312.157     318.028      3.0998     7.94959     14.7104     158.734     58.3019     28.9253     17.8115     137.891     60.9228    0.527364     16.8843    0.487635     125.974     501.426     4.82708     3.30714    0.395641     36.1147     474.989     129.656      15.544    0.963884     3.00489     216.941     65.6798    0.161873     30.5457      652.37     186.235     4.19114     61.9875     23.5385     91.5331     778.067     8.71003     11.9837      6.9002   0.0193346      74.751    0.162164     128.039     5.94977     4.07168     201.082     307.008     290.766     16.1334     16.1499     290.785     306.686      200.92     4.17634     6.00057      128.42    0.148372     74.5375   0.0263297     6.96498     12.1042     8.77112      777.24     91.6511     23.7513     61.9714     4.05717     186.527     652.584     30.2888    0.158844     65.8899     216.122     2.90214    0.948466     15.5723     129.599     472.846     36.4325    0.383767     3.29777     4.70948     501.834     126.459    0.485222     16.9316    0.692018     60.7622     137.783        17.6     29.0071     58.3252     157.884     14.7496     8.11598     3.04619     318.161     312.427     161.352
    16.0776   0.0569953     17.9163     29.4244     3.00593     162.316     30.4231      25.297     3.49587     39.9546     36.2174      48.583     16.8844     212.807     20.9779     9.69351     241.295     38.5975     20.0537       292.7     82.2753     61.2984     28.3083     151.907     22.1975      75.121     19.5173     5.54508    0.502548     77.8976      4.1207     110.505     23.5073     37.2023    0.541265     9.76839     87.4934     18.4348     27.1806      21.872     18.7287     5.32255     2.54002     26.6584     18.3154   0.0746865  0.00114497     127.609     2.06269     133.608     134.171     2.06062     127.744  0.00226019   0.0651318     18.2951      26.426     2.55384     5.34554     18.8118     21.8047      27.114     18.4557     87.4462     9.64551    0.529781     37.1029      23.367     110.711     4.14413     77.8912    0.544925     5.56239     19.7532     75.2107     22.0712     152.053     28.1357     61.4365      81.979     293.625     19.9294      38.779     240.234     9.74623     21.0953     213.047     17.0307     48.6279     36.1676     39.7553     3.44481     25.4572     30.9552     162.417     3.03649     29.5126     17.9653   0.0478826     16.1599
    175.326     29.3035     2.71088     14.7589     41.5914     467.509     122.813     80.3425     148.859    0.610667     104.088     129.651    0.487636     20.9779     210.762     15.8188     180.173     5.07867     140.538    0.424005     27.7399     43.5823     22.8587     14.4833     8.80343     7.15694     103.465     6.38048     63.6736     133.833     79.3704     84.0842     37.7264     48.8713     108.029     1.58418     83.5946     1.15136   0.0183839     12.0147     9.29782     8.90812      4.7139     130.979    0.227004     85.4921   0.0395652     240.831   0.0704636     113.068     113.134   0.0619708     241.126   0.0371595     85.8442    0.235162     131.197     4.65254     8.93141     9.12189     12.1548   0.0283514     1.14414     83.5125     1.62413      108.13     48.9774     37.6217     84.6777     79.2071     133.764     63.6089     6.35631     103.926     6.97005      8.7391     14.6246     22.5861     43.7534     27.5161    0.405051     141.315     5.03622     179.607     15.7507     209.944     20.9788     0.50585     129.262     103.526      0.6038     148.422     80.5781     123.375      466.57      41.679      14.799     2.70659     29.4462      175.85
    648.156     180.057     63.1129     14.6032     165.511     79.2066      623.78     71.4009     22.3065    0.126777     92.9628      451.27     125.974     9.69347     15.8189     598.697      435.01     95.5482     17.1015     24.4058      267.69     451.243     318.932     51.9782     13.0846     145.302     4.10686     318.188     188.918     4.27328     23.3943     31.6007     4.09527     42.1661     29.2717     60.2556     251.791     529.331     20.9478     4.61397     131.278      152.01     235.818     4.85447     5.68705     66.1002     153.315     397.706     324.356     2.04954     2.10251     325.111     398.236      153.44     66.0567      5.6821     4.85907     235.933     151.943       131.8     4.55267     20.8217     529.882     251.864     59.8372     29.3707     42.1559     4.03079      31.913     23.5377     4.29415     189.378     318.122     4.11636     146.093     13.0815     52.0186     318.874       453.2     268.493     24.4191     16.9864      96.178     434.771     595.758     15.7091     9.79582       125.5     451.976     92.8098    0.140999     22.2998      71.386     623.295     79.1329     165.428     14.6373     62.4122     180.941     647.686
