wavelength: 632.8 R: 400 r0: 10 LinSpaced num: 100 100
    10.9488     23.2447     5.10566      2.7766     2.34181      8.6106   0.0526279     122.728     1.53736     141.628     2.10732     115.548      8.7453     24.3855     74.4066     18.9913     21.3638     36.0659     3.05148     3.84458     23.1195    0.909946     34.7412     2.80927    0.231068     70.9072     107.525      2.9333     85.0599     124.593     52.2515   0.0275848     44.3936     157.948     40.7225     17.3118     2.28697     155.838     34.8802     5.53852     69.1591      29.323    0.046311     4.88157     220.992     8.53801     1.48313     46.3052     22.0669      108.33     108.329     22.0665     46.3051     1.48325     8.53771     220.996     4.87856   0.0462819     29.3228     69.1582     5.53898      34.881     155.839       2.287      17.312     40.7226     157.941     44.3953   0.0275808     52.2526     124.593     85.0615     2.93361     107.526     70.9097    0.231074     2.80915      34.744    0.909497     23.1181     3.84528     3.05174     36.0667     21.3617      18.992      74.406     24.3857     8.74566     115.544     2.10787     141.626     1.53771     122.728   0.0526812     8.61071     2.34287     2.77661     5.10521     23.2445     10.9455
    23.2447     207.849     117.171     183.216     20.1531     3.84548     30.5433     34.8098     57.1154     10.0237      1.7927     10.3173     15.6788    0.015582     88.5345     63.8176     12.1522     88.0431     4.39649     69.2757     26.9002     24.8302     42.9975     2.84387    0.542607     1.05795     4.71125     14.4001      37.076     77.7633      16.284     60.7562    0.986726      205.56     172.803      123.88    0.182225     169.554     106.143     21.9572     32.9864     38.6479     1.46936     23.6418     33.6184      213.93     103.311     69.2799     343.102     91.7606     91.7631       343.1     69.2804      103.31     213.931     33.6179     23.6432     1.46955      38.648     32.9866     21.9568      106.14     169.552    0.182192     123.878     172.801     205.559    0.986526     60.7582     16.2844     77.7632     37.0758     14.3994     4.70952      1.0576    0.542312      2.8438      42.998      24.833     26.9009     69.2751     4.39624     88.0408     12.1518     63.8149     88.5339   0.0155523     15.6787     10.3185     1.79273     10.0234     57.1101     34.8117      30.544     3.84643     20.1527     183.211     117.176     207.863     23.2446
    5.10563      117.17     4.58796     138.353     6.86959     14.5742     5.48478     57.5666     20.3815     227.959     22.7222     48.6562     9.95771     1.55467     3.36373     28.7828      1.6887     24.5705     13.4624     34.1603     122.197     25.2538     207.679     42.7459     2.84851      86.961     30.5172     1.35805     11.2156     3.66474     55.9519     29.6049     7.36135     3.04633     369.209     97.7242     10.6397   0.0164665     129.384     63.5658     1.86538     132.044     0.42336     46.5794     2.97835     141.691     249.574     266.228     421.628     131.451     131.453     421.627     266.228     249.574     141.693     2.97818     46.5874    0.423346     132.043      1.8654     63.5672     129.387   0.0164399     10.6402     97.7244     369.211     3.04636     7.36163     29.6039     55.9527     3.66521     11.2154     1.35804     30.5151     86.9605     2.84793      42.744      207.68     25.2558     122.206     34.1581     13.4627     24.5692     1.68856     28.7811     3.36303     1.55392     9.95893     48.6547     22.7223     227.966     20.3821     57.5701     5.48432     14.5762     6.87136     138.359     4.58905     117.168     5.10522
    2.77662     183.215     138.353     8.86637     181.621      25.325     2.39771     39.2208      1.1562     83.7751     43.9454       114.1      44.053     25.1867     17.3173     10.8015     30.3076     14.5559     3.20223     5.41848      2.2165     2.79729     90.5825     162.067     23.8719     63.6858     128.389     22.0414     180.896     27.2858   0.0197378     5.75843     77.7915    0.407251     4.48777     19.9786     47.4737     1.30232     5.82474     31.7133     101.645     6.41152     40.3585     6.25852     70.6807     4.38173     194.587       530.2     24.3542     197.377      197.38     24.3544     530.196     194.588     4.38201     70.6844      6.2582     40.3596     6.41197     101.645     31.7122     5.82459     1.30235     47.4733      19.979     4.48737    0.407142     77.7912     5.75832   0.0198226     27.2882     180.896     22.0415     128.394     63.6813     23.8722     162.056     90.5803     2.79916     2.21641     5.41855     3.20216     14.5571     30.3089     10.8022     17.3173     25.1878      44.053     114.101     43.9411     83.7718     1.15611     39.2213     2.39634      25.325     181.618     8.86821     138.352      183.22     2.77711
    2.34182     20.1531     6.86956     181.621     13.6081      193.63     4.49286     17.7287      20.757     1.09848     25.1887     6.46371     153.086     1.75249     196.314     10.8039    0.863731     91.0081     62.6682     78.1605     10.5825    0.287793    0.415031     1.00495     49.8596     80.0284     107.497     1.35543    0.637129     182.903     77.8251     23.1865    0.280189       89.61     182.572   0.0829748     26.7357     98.4549     41.0843    0.970545      2.2678     3.36033    0.126773     26.4834     42.0738      11.405     8.97327     7.01985     64.9641     6.61298     6.61222      64.965     7.01943     8.97281      11.404     42.0757     26.4859    0.126809     3.36027     2.26772    0.970494     41.0828     98.4579     26.7362   0.0829491     182.574     89.6105    0.280478     23.1867     77.8284     182.903    0.637429     1.35576     107.493     80.0209     49.8589     1.00504    0.414981    0.287559     10.5807     78.1625     62.6641     91.0076     0.86403     10.8044     196.321     1.75172     153.093     6.46272     25.1876     1.09904     20.7596     17.7265     4.49376     193.635     13.6111     181.622     6.87122     20.1552     2.34223
     8.6106     3.84545     14.5742     25.3251      193.63     41.5573     118.144     107.033     2.46817     147.698     3.02478     18.4916     1.09235     24.0125     4.60647     174.344     5.63926     80.4774     13.9879    0.710831     172.929     1.38067     167.345     9.51855    0.458585     10.8865     1.55202     35.4243     1.04218     39.5857     84.8624     94.1447     10.7503     145.262      237.66     165.581     26.0803     167.942     41.6152     72.2823     29.1471      5.7805     3.10645     29.9211     139.908 0.000297861     70.9973     199.923  0.00554888     40.9963     40.9946  0.00555396     199.922     70.9959 0.000303067     139.905     29.9236     3.10673     5.78071     29.1484      72.283     41.6127     167.939     26.0803     165.579     237.657     145.267     10.7503     94.1403     84.8635     39.5852     1.04205     35.4224     1.55165     10.8873    0.458593     9.51703     167.344      1.3817     172.926     0.71096      13.989     80.4718     5.63907     174.348     4.60631     24.0113     1.09258     18.4922     3.02541     147.689     2.46873     107.035     118.151     41.5561     193.634     25.3269     14.5772     3.84645     8.61073
  0.0526265     30.5431     5.48478     2.39773     4.49286     118.144      12.643     85.0579     32.0069     25.9514      164.86     42.5823     111.861     2.59023     24.0244      2.2488     30.9859     0.38829     14.2516      4.7735     22.2068     2.83948     42.6697     212.306     12.1324     175.696     59.0494     2.99019     10.0174     15.6441     62.9562     170.135     2.09223     75.0377     154.454     149.025     4.39352     14.0947     128.841     135.953     38.7802     56.1599     17.2593     27.4222    0.605698     297.796     242.075     135.819     579.738     46.2816     46.2793     579.737     135.819     242.075     297.792    0.605708     27.4207     17.2595     56.1595     38.7802     135.953     128.844     14.0954     4.39357     149.025     154.452     75.0394     2.09268     170.138     62.9559     15.6436     10.0171     2.99053     59.0471      175.69     12.1332     212.308     42.6728     2.83868     22.2065     4.77269     14.2534    0.388107     30.9843     2.24924     24.0228     2.59061      111.86     42.5822     164.859     25.9513     32.0091     85.0575     12.6507     118.151     4.49305     2.39732     5.48529      30.544   0.0526786
    122.729     34.8099     57.5667     39.2208     17.7287     107.034     85.0577     146.057      33.562     36.1446     60.2211     15.3113     108.346     57.5916     52.5698     131.952     42.7627     94.6938       3.645  0.00707475     46.5656    0.755366    0.135626     167.296     8.46276     45.7013     141.898     68.6524     106.034     28.9811     2.47252      1.1534     70.0882     6.36522     23.2676    0.783513     198.696     13.1278     77.9469     38.0817     165.908     19.4181     6.10383     22.9367     22.6472     172.241      234.74     394.608     275.595     250.865     250.867     275.595     394.607     234.741     172.238      22.647     22.9377     6.10333      19.418     165.909     38.0844     77.9467     13.1263     198.694     0.78342     23.2669     6.36584       70.09     1.15341     2.47236     28.9823     106.034     68.6516     141.893     45.6997     8.46362     167.296    0.135563    0.755185     46.5643  0.00712027     3.64438     94.6968     42.7584     131.953     52.5683     57.5909     108.343     15.3122     60.2189     36.1492     33.5615      146.04     85.0576     107.035      17.727     39.2172     57.5706     34.8117     122.729
    1.53735     57.1152     20.3816     1.15622      20.757     2.46818      32.007     33.5622     161.296     3.17577     171.663     104.583     1.69584     117.845      27.468      55.708     25.2548     157.105     199.211     109.928     31.5577      16.105     5.40971     84.9033     47.3194     8.88381     145.031     12.5839     3.96942     50.3926     139.538      1.5039     1.80668     130.593     110.995     17.0212      25.698     121.869     55.6073     91.0033     14.5598    0.782909     108.755     1.83723     18.6295    0.608209     165.662     200.671     34.0523     318.563     318.568     34.0524     200.671     165.661    0.607992     18.6296     1.83729     108.755    0.783063     14.5585     91.0011     55.6085     121.863     25.6982     17.0217     110.994     130.594      1.8063     1.50311     139.538     50.3909     3.96942      12.583     145.032     8.88375     47.3172     84.9032      5.4093     16.1046      31.556     109.924      199.21     157.103     25.2558     55.7068      27.468     117.846     1.69586     104.583     171.661     3.17615     161.296     33.5634     32.0083     2.46747     20.7583     1.15609     20.3824     57.1126      1.5379
    141.629     10.0237     227.959      83.775     1.09848     147.697     25.9514     36.1447     3.17575     14.5102     3.66378     133.524     179.683     55.1955      176.06     47.9474     21.0485     34.1095     13.6294     30.0126     121.908     81.4664      64.884     49.5688     34.2314     38.9566     76.8964     76.4178     42.1055     22.0153     130.517     171.063     3.42526     265.786     196.436      33.643     1.73403     121.452     133.288      28.192     13.2734     32.3178     52.8694    0.940939     25.7167    0.771961     1.37139     18.6717      41.278     25.7763     25.7757     41.2774     18.6721     1.37156    0.772002      25.718    0.941253     52.8681     32.3167     13.2729     28.1926     133.286     121.456     1.73378     33.6431     196.436     265.787      3.4256     171.062     130.516     22.0158     42.1044     76.4208      76.898     38.9567     34.2327     49.5714     64.8829     81.4632     121.908     30.0093     13.6293     34.1112     21.0489     47.9473     176.047     55.1997     179.689     133.517     3.66363      14.513     3.17603     36.1465     25.9511     147.691     1.09913     83.7642      227.95     10.0237     141.628
    2.10731     1.79269     22.7222     43.9456     25.1887     3.02477      164.86      60.221     171.663     3.66375    0.741771     18.3009     1.71887     179.184     2.71946     255.886     4.89539     152.898     3.15652     21.1651     1.65495     13.7762     4.72254     91.8607      72.015      18.112     208.881     4.81233     68.9814     5.87656     62.3864     156.315    0.409711     65.2722     127.963     252.621   0.0208212      8.2251     59.9873     575.077     11.1557     18.3441     16.4905     90.1884     20.9329     35.1995     360.484     108.041     37.2135     47.1306     47.1314     37.2129     108.041     360.484     35.1991     20.9312     90.1883     16.4906     18.3437     11.1562     575.082     59.9868     8.22459    0.020812     252.619     127.964     65.2698     0.40953     156.316     62.3863     5.87639     68.9822     4.81315     208.881     18.1137     72.0168     91.8623     4.72289     13.7792     1.65475      21.166     3.15572     152.898      4.8954     255.892     2.71945     179.185     1.71893     18.3019    0.741317     3.66361      171.66     60.2189     164.859      3.0254      25.189     43.9399     22.7237     1.79274     2.10788
    115.548     10.3173     48.6564       114.1     6.46365     18.4916     42.5828     15.3112     104.583     133.524      18.301     55.3681     36.9445     13.7799     111.472      163.22     63.6695     210.846     90.4838    0.331302     102.948     41.1076     22.2568      33.575     21.7669     3.72138      11.715     225.614  0.00442572     95.3938     5.21239     7.90726     40.4304     36.1274     116.861     27.9718     161.131     48.5268     210.469     80.3008     168.337     77.5215     20.8592     5.76308     60.9562     288.462     217.759     390.107     262.532      260.47     260.473     262.534     390.109     217.759     288.464     60.9564     5.76306     20.8598     77.5216     168.336     80.3016     210.471     48.5252     161.131     27.9721     116.863      36.128     40.4324      7.9073      5.2125     95.3945  0.00442312     225.612     11.7161      3.7215     21.7664     33.5763      22.255     41.1093     102.943    0.331268     90.4866     210.848     63.6715     163.223     111.469     13.7771     36.9448      55.376     18.3019     133.517      104.58     15.3122     42.5822     18.4921     6.46293     114.103     48.6541     10.3185     115.544
    8.74527     15.6789     9.95774      44.053     153.086     1.09235     111.861     108.347     1.69585     179.683     1.71889     36.9444     6.89562     47.7804     14.6885     142.395     54.0036     32.9599     475.655     1.97798     183.485     54.2842     30.8369      111.04     6.20147     80.2583      14.496     26.0076     142.858     1.28852     477.548      13.177     39.8773     36.8496     174.407     52.2696     193.876     9.01789     25.1709     12.7524      155.04     119.679     31.8306    0.269439     21.6376      203.27     171.058     171.835     611.311     320.714     320.715     611.313     171.835      171.06      203.27     21.6375    0.269296     31.8304     119.678     155.039      12.752     25.1699     9.01745     193.877       52.27      174.41     36.8494      39.877     13.1749     477.554     1.28852     142.859     26.0057     14.4951     80.2564     6.20227      111.04     30.8379     54.2819     183.482      1.9779     475.647     32.9605     54.0041     142.396     14.6878     47.7811     6.89634     36.9447     1.71894     179.687     1.69564     108.343     111.861     1.09259     153.094     44.0517      9.9583     15.6787     8.74569
    24.3856   0.0155824     1.55468     25.1867     1.75249     24.0124     2.59024     57.5917     117.845     55.1953     179.183     13.7799     47.7801     156.198      18.808     73.2805     54.2412     33.0771     26.3872     163.209     3.08949     265.362    0.760026     63.7966      53.314    0.327001     133.965     7.62913     165.843   0.0188716     138.642     210.819     1.50512     242.186     173.698     13.9466      1.8782     99.6511     190.816     25.8364     8.64303     89.5442     153.776    0.420391     24.6872     0.87594      27.918     118.444     100.492     326.552     326.554     100.492     118.445     27.9184    0.875993     24.6873    0.420274     153.776     89.5451     8.64303     25.8363     190.817     99.6528     1.87803     13.9469       173.7     242.184     1.50506     210.809     138.643   0.0188843     165.849     7.62885     133.966    0.326874     53.3136     63.7979    0.759999     265.361     3.08992     163.209     26.3892     33.0765     54.2421     73.2758     18.8092     156.197     47.7808     13.7771     179.184     55.1992     117.852      57.591     2.59062     24.0112     1.75177      25.187     1.55384   0.0155515     24.3857
    74.4067     88.5345      3.3637     17.3172     196.314     4.60644     24.0244     52.5699     27.4681     176.059     2.71944     111.474     14.6885     18.8079     35.9827       4.383     206.995   0.0697925     310.388   0.0437491     135.768      2.1993     16.6235     7.53463     68.6488     7.76386     75.1986     18.3791      1.3178     9.17515      15.563       202.9     40.1906     99.1289     50.2379     298.672     79.6746     143.279      134.98     213.467     67.8036     31.1817     41.6304     26.3406     14.0262     65.3354     44.0292    0.528496     4.13784      41.017     41.0161     4.13785    0.528436     44.0282      65.334     14.0255     26.3399     41.6299     31.1811     67.8053     213.464     134.977     143.278     79.6749     298.673     50.2361     99.1311     40.1908     202.904      15.563     9.17552     1.31794     18.3789     75.2002     7.76318     68.6499     7.53369     16.6229     2.19885     135.769    0.043754     310.382   0.0697846      206.99     4.38277     35.9851     18.8086      14.688     111.476     2.71905     176.057      27.469     52.5716     24.0243     4.60636     196.319     17.3167     3.36407     88.5361     74.4032
    18.9914      63.818     28.7829     10.8014     10.8039     174.344     2.24879     131.951     55.7082     47.9474     255.885     163.221     142.395      73.281     4.38293     15.6464    0.215752     14.4015     22.7047     321.567     70.3546      524.64     39.5066      16.401     8.90489    0.241588     66.8249     209.315     210.487     71.9469     12.9273     51.6421     35.5536     218.692     161.564     188.243     92.1306     32.6371     182.598     171.758     160.545     78.9501    0.373245     25.5254     241.974     92.4415     163.704     398.142     27.1405     171.829     171.826     27.1405     398.143     163.703     92.4417     241.974     25.5202    0.373298     78.9506     160.544     171.761     182.602      32.636     92.1305     188.245     161.561      218.69     35.5564      51.642     12.9282     71.9492     210.489     209.311     66.8246    0.241613     8.90507     16.4007     39.5073     524.653     70.3567     321.567     22.7035     14.4018    0.215777     15.6461     4.38241      73.283     142.398     163.229     255.884      47.945     55.7086     131.954     2.24884      174.34     10.8038     10.8037     28.7844     63.8198     18.9904
