wavelength: 632.8 R: 400 r0: 10 LinSpaced num: 100 100
     174003     5187.79     1223.89     664.392     134.799     208.749     230.744     229.208     24.1929      27.594     1.09368     91.5203      155748     23493.5     2619.31     749.152     351.675     228.679     10.6244     20.9163     76.7488     87.6098     270.403     1635.48     19646.1      249671     1852.99     258.359     53.4043     21.6043     67.8206     89.8635     128.914     71.4474      574.16     1415.95      8014.3     8328.56     9.92161     143.769     18.9578      170.59     359.965     234.467     294.816     197.845     255.591     555.013      2101.4     14317.7     14317.8     2101.42     555.011     255.683     197.839     294.879     234.454     359.964     170.581     18.9302     143.645     9.97831     8339.29     8014.13     1415.63     574.097     71.4021     128.889     89.8753      67.832     21.5776     53.4234     258.385     1853.03      249677     19645.8     1635.05     270.518      87.539     76.7061     20.8126     10.6509     228.663     351.649     749.078     2619.24     23492.8      155765     91.3397     1.09851     27.5954     24.2046     229.246     230.949     208.827     134.839     664.685     1223.83      5187.6      174001
    5187.79     2575.21     165.582     141.354     74.5809     131.677     11.0493     61.2592     10.0038     297.134     145.971     2141.49     308.714     2601.85     17.6017     87.8476     96.4188     223.933     26.2639   0.0255273     149.695      199.44    0.176552     85.8226     1676.55     42.2617     2710.52     393.818     222.351       76.38      2.6523    0.143091     168.662     150.668     21.2837      385.46     1418.18     5557.32     720.886     666.633     165.735     31.3244     22.5555      42.305     43.2786     34.9156    0.983435     543.402     1119.06     3696.66     3696.68     1119.07     543.408    0.977962     34.9095     43.2835     42.3077     22.5554     31.3324     165.721     666.739     721.115      5557.2     1417.79     385.507     21.2945     150.704      168.68    0.143616     2.65524     76.3969     222.324     393.797     2710.43     42.2527     1676.37     85.8368     0.17554     199.501     149.595   0.0263099      26.266     223.917      96.402     87.8926     17.6221     2601.85     308.664      2140.9     145.878      297.06     10.0082     61.2966     11.0588      131.67     74.5602     141.281     165.564      2575.3     5187.63
    1223.89     165.583     526.986     28.5354     11.5165     40.4705     145.821     53.7708     66.8682     11.4192     439.863      715.65     859.373     668.892     581.162     77.6943     19.0123     46.5484     81.0797     25.3143      126.51     1.40223     1.90583     378.181     637.848     744.539     603.342     354.868     82.5945     19.1767     131.176     44.5579     90.5942      19.776     123.891     561.883     288.337     1189.95     339.643     796.167     367.989     13.5723     25.7748     109.296     216.504     14.1136     61.3575     183.316     317.469     79.9483     79.9482     317.476     183.319     61.3975     14.1165     216.536     109.316     25.8014     13.5666      368.01     796.227     339.591     1190.02      288.36     561.958     123.824      19.754     90.5873     44.5572     131.192     19.1945     82.6159     354.933     603.343     744.465     638.061     378.287     1.90006      1.4058     126.513     25.2622     81.1244     46.5198     19.0192     77.7778     581.274      669.11     859.147     715.695     439.973     11.4188     66.8804       53.75     145.894      40.459      11.509     28.5764     527.393     165.588     1223.95
    664.391     141.354     28.5353     80.0142      7.0096     37.4285    0.872225     41.6932     17.6278     262.526     70.9902     129.565     217.834      70.684     80.5106     128.388     335.629    0.776163     53.0783     57.8806    0.267547     177.688     225.121     24.4758     50.7066      193.96     93.7347     100.445     185.972     19.5078     50.2446     21.1617      12.773  0.00122233     97.9222     17.5239     91.2626     692.076     263.137     3.42014     7.97161     117.053  0.00807128     29.6259    0.283303    0.994127    0.949652     350.691     238.315     157.581     157.584     238.317     350.685    0.947398    0.994551    0.284592     29.6239   0.0081846     117.044     7.96603     3.41763     263.073     692.106     91.2329     17.5164     97.9171  0.00134512     12.7714     21.1659     50.2478     19.5275     185.947     100.437     93.7112     193.917     50.7002      24.492     225.127     177.628    0.264604     57.8853     53.0768    0.772643     335.646     128.402     80.5289     70.7052      217.83      129.56     70.9659     262.495     17.6322     41.6999    0.869239     37.4348     7.00532     79.9702     28.5403     141.429     664.511
      134.8     74.5808     11.5166     7.00962     189.281   0.0123012     188.723     1.22058     6.17181      31.006     84.6971     27.3428     623.717     29.8251  0.00398306     12.1375     271.079     68.6194     35.1564     27.1534     20.4869     346.619     2.77405   0.0496008     17.3658     602.053     32.8134     174.818     7.14894     13.2848     13.6096     140.075      7.3057     122.118     7.65553     13.9522     140.211     187.508     12.0979      6.7377      11.047     8.21976     84.6888     27.0381     51.1674     15.7772     142.327     67.2344      45.455     58.7438     58.7454     45.4521     67.2359     142.321      15.781     51.1794     27.0338     84.6893     8.22053     11.0483     6.73678     12.1241     187.457     140.262     13.9627     7.65534     122.112     7.31395     140.019     13.6084     13.2828     7.15553     174.824     32.8042     601.886      17.382   0.0482061     2.77543     346.621     20.4469     27.1669     35.1203     68.6361     271.133     12.1398  0.00403017     29.8436     623.731     27.3236     84.6145     30.9904     6.16903     1.22106     188.686   0.0123734      189.34     7.00563     11.4937     74.5605     134.839
    208.747     131.677     40.4705     37.4285   0.0123007     78.6802     52.1534     402.021     80.0983     106.807     7.18473     56.4002     159.817     2.60261     64.7439     10.8992     1.76529     1.89721     1.93976      6.2043    0.703176     16.5377     5.91961     54.7464    0.620727     177.153     58.8622     14.1468     98.3898     77.9692     549.099     32.8355     22.7342     1.19511     34.8822     29.3461     158.356     241.561    0.329032     111.385    0.232668     9.88475   0.0984661     2.71474     351.618     71.7579     57.7819   0.0320873     301.699     100.264     100.264     301.708   0.0320515     57.7508     71.7621     351.631     2.71507   0.0984567     9.88583    0.231963     111.439    0.328927     241.547     158.374     29.3606     34.8841      1.1987     22.7298      32.832     549.146     77.9691     98.4075     14.1654     58.8299     177.154    0.617268     54.7588     5.93005     16.5557    0.705198     6.21378     1.94337      1.9079     1.76464     10.9046     64.7866     2.59919     159.834     56.4139     7.18429     106.803      80.088     402.038     52.1842     78.7607   0.0123725     37.3937     40.4471      131.67     208.826
    230.741     11.0492      145.82    0.872203     188.724     52.1537     296.418     1.89726     160.459   0.0109905     1.27135     13.3667     123.631     43.0057     100.517  0.00176646     23.5888     107.087     84.6307     22.2155     87.3303     26.7998      11.094     102.641      59.523     98.6143     7.58633     12.3929     42.0582     152.071     2.36542     269.252     89.1458     222.412     3.21614     148.909     20.8587     191.474      97.675     0.79833     5.58014     28.7489     9.79607      185.83     25.1061     133.177     46.2604     7.65569      16.362       22.89     22.8901     16.3635     7.65477     46.2368     133.174     25.0916     185.828     9.79261     28.7596     5.58307    0.798136     97.6889     191.474     20.8706     148.912     3.21624     222.436     89.1512      269.23     2.36416     152.063     42.0666     12.3891     7.58804     98.6563     59.4953     102.621     11.1125     26.7957     87.3855     22.2095     84.6035     107.131     23.5874  0.00182994     100.504     43.0073     123.603     13.3679     1.27075   0.0110663     160.465      1.8995       296.4     52.1481     188.711    0.869876     145.829     11.0588     230.694
    229.204     61.2592     53.7711     41.6934     1.22058     402.022     1.89727     234.546     13.5663     32.6808     11.8726     10.2885     34.3266     1.53278     16.5456     114.575     16.9642     26.0165     35.7878     26.3227     47.0246     6.20786     98.9673     16.7391     5.23482     65.5594     21.9422     12.2528     31.0012     15.9233     224.911     6.89795     311.795 7.28286e-05     72.6403     51.2724     86.4447     194.763     13.5769     25.3358     4.09677    0.351009     62.2417     61.9682     27.9539     91.5436     28.2275     70.0479     194.971    0.259266    0.259278     194.964     70.0495     28.2049     91.5327     27.9546     61.9736     62.2314    0.351001     4.09285     25.3508     13.5788     194.719     86.4707     51.2657     72.6634 7.92109e-05      311.77     6.90044     224.898     15.9392     31.0068     12.2439     21.9468     65.5199     5.25385     16.7264     99.0047     6.21857     47.0256     26.3105     35.7894     26.0227     16.9687     114.622     16.5085     1.52797     34.3873     10.3031      11.895     32.6987     13.5829     234.379     1.90143     402.028     1.21582     41.7414     53.7329     61.2738     229.167
    24.1926     10.0039     66.8681     17.6278     6.17182     80.0984     160.459     13.5664     6.78301     112.676     136.636     197.845     113.643     41.1434     115.404      9.8449     45.7279    0.808067     7.13144     13.7307     2.32176     65.6424     2.92409     111.538     63.3889     89.5506       219.4     128.102     72.3569     41.6777     3.90986     120.173     121.237     2.17823     4.77651     66.0242     10.4404     45.9042     32.5967     112.552     80.4313     23.1749     46.7621     62.6968     83.4582     7.17066     141.038     2.92974     121.672     12.5789     12.5781     121.684     2.92973     141.064     7.17318     83.3923     62.6925     46.7502     23.1703     80.4638     112.547     32.6075     45.9101     10.4344     66.0172     4.77859     2.18392     121.267      120.18     3.91229     41.6831     72.3733     128.105     219.394     89.5039     63.3501     111.606     2.92528     65.5994     2.33276     13.7302     7.12498    0.805267     45.7112     9.86535     115.418      41.149     113.636      197.69      136.64     112.655     6.77245     13.5784     160.419     80.0877     6.16903     17.6155      66.847     10.0082     24.2042
    27.5937     297.135     11.4192     262.525     31.0059     106.808   0.0109871     32.6807     112.676     96.3503     120.538     30.6877     1.43919     59.5396     91.9086     15.6235      83.304     77.1204     30.7248     33.4442     94.5634     37.9897     38.5351      53.716     134.694     2.90048     12.6017     99.1789     30.7535     53.4431     32.6173     4.75583     56.6869     14.9043     370.692     11.1962     390.675     44.3842     41.8972     36.1669     187.103     16.1589     1.45657      37.931    0.249464    0.284149      27.662     127.699      387.21     6.01276     6.01273     387.198     127.698     27.6461    0.283868    0.248164     37.9264     1.45444     16.1574     187.091     36.1829     41.9269     44.3809     390.613     11.2005     370.692      14.892      56.667     4.76093     32.6217     53.4343     30.7336      99.157     12.5892     2.90338     134.726     53.7156     38.5347     38.0009     94.5141     33.4384      30.715     77.0933     83.3495     15.6124     91.8896     59.5405     1.43223     30.6927     120.526     96.3725     112.655     32.6651   0.0102349     106.803     30.9905     262.604     11.4335     297.063     27.5949
    1.09363     145.971     439.863     70.9903     84.6973     7.18475     1.27134     11.8726     136.636     120.539     961.509     185.439     4.91576     5.17358     706.701     121.491     117.391     34.5974     7.99036     8.72388     76.3217     116.165     33.1623     753.233     42.5173     24.4684     155.139      952.93     121.712     71.6398     8.75363     4.58867     8.65437     52.8577     55.8192      325.56       24.24     1.47168     784.889     269.949     48.1612     7.72174     1.25534     19.7871     6.69997     1.89009     2.07433     201.242     541.727     459.078     459.078      541.73     201.245     2.07546        1.89     6.70301     19.7946     1.25356     7.71863      48.148      269.97     785.007     1.47672     24.2199     325.564      55.812      52.863     8.64246     4.58215     8.75139     71.6658       121.7     952.749     155.127     24.4521     42.5125     753.355     33.1603     116.166     76.3118     8.71765     7.99592     34.5745     117.359      121.54     706.778      5.1669     4.90744     185.451     961.364      120.52     136.591     11.8874     1.27145     7.17562     84.6965     70.9789     439.909     145.928     1.09491
    91.5203     2141.49     715.651     129.565     27.3427     56.4002     13.3667     10.2885     197.846     30.6876     185.438     1195.71     2021.91      2749.5     423.647     282.075      12.768     28.7615      11.633     14.1526     33.0018   0.0350374     460.135     817.535     2614.44      2522.4     1791.14     53.4097   0.0574302     147.261     7.58676     10.8724     36.7939     1.80958     193.151     489.831     1281.66     48.1184     1290.18      14.311      8.8133     227.454   0.0460295     6.76423     49.8002     4.28967     226.358     176.186     1100.21     772.695     772.693     1100.21     176.187     226.376     4.29102     49.7932     6.75858   0.0453708     227.408     8.80226     14.3169      1290.5     48.1255     1281.35     489.737     193.137     1.80731     36.8003     10.8692     7.58875     147.288   0.0566519     53.3829     1791.02     2522.35     2614.32     817.571     460.145   0.0349287     32.9634     14.1561     11.6271     28.8053     12.7716     282.035     423.486      2749.6      2021.7     1196.05     185.515       30.67     197.814     10.3011     13.3805     56.4407     27.3677     129.596     715.685     2141.43     91.5652
     155749     308.714     859.375     217.835     623.715     159.819      123.63     34.3266     113.643     1.43921      4.9158     2021.91     304.841     3766.08     1609.95     331.167     126.841     9.74714     72.5687     8.22268     50.3784      34.309     170.596     1399.54     13907.8     20908.9     3515.91     272.265     47.5402     7.81067     1.34059     36.9301     42.6572     551.323     264.232     1321.69     2788.59      104390     7189.59     104.973     115.448     19.8388     54.9102     112.316     74.8191     464.938     409.205     603.864     249.684     36762.1     36762.2     249.695     603.856     409.162      464.92     74.7921     112.324     54.8955     19.8364     115.446      105.01     7190.78      104386     2789.14     1321.89     264.216     551.468     42.6571     36.8794     1.33863     7.81082     47.5542      272.24        3516     20912.2     13907.7     1399.61     170.615     34.3119     50.4874     8.22012     72.5258     9.76081     126.813     331.173     1610.03     3765.97     305.412     2021.32     4.92165     1.44454     113.539     34.3505     123.593     159.888      623.73     217.975     859.141     308.765      155751
    23493.6     2601.85     668.887     70.6842     29.8252     2.60261     43.0058     1.53275     41.1435     59.5397     5.17363     2749.49      3766.1     4980.18     1068.38     62.1142      13.628     79.9644     35.5232     27.3734     99.3764     48.8257     3.16206     1174.14     8545.26     1026.95     2113.72     47.9535     27.1782     65.9469     2.83833     21.7792    0.277343     4.42548     17.5543     735.357     770.738     25205.4     790.909     39.7296      118.13     3.24468     17.2839     1.20103      2.2888     3.42355     39.8977     352.562     11.5178     8557.75     8557.75     11.5148     352.555     39.8886     3.42274      2.2919     1.20088       17.28     3.24012     118.076     39.7648     790.566     25205.8     770.475      735.44     17.5564     4.41754    0.276419     21.7854     2.83733     65.9383     27.1771     47.9981     2113.66     1026.67     8546.02      1174.1     3.16001     48.8613     99.3893     27.3527     35.5178     79.9756     13.6215     62.1534     1068.35     4979.82     3765.07     2749.45     5.18695     59.5406     41.1487     1.52922     43.0188     2.59916     29.8433     70.6921     668.745     2601.85     23492.8
    2619.32     17.6018     581.162     80.5108  0.00398233     64.7437     100.517     16.5455     115.404     91.9094     706.703     423.648     1609.95     1068.37    0.145013     145.771     5.32071      16.194     11.7189     1.69717     41.2148    0.302457     55.9592     112.469      1117.2      1640.6     146.646     552.307     129.858     116.801     58.8926     40.3832     106.831     11.2853     9.58216     380.827     11.4428     2428.67     586.699     35.5913     12.7909     168.693      20.558     65.9527     268.699     13.9716     166.641     31.9937     205.191     2.74148     2.74171     205.207     31.9897     166.581     13.9704     268.745     65.9546     20.5814     168.683     12.7842     35.6019     586.818     2428.56     11.4636     380.824     9.57833     11.2872     106.818     40.3886     58.9182     116.784     129.903     552.248     146.688      1640.6     1117.03     112.431      55.944     0.30401     41.2543      1.6955     11.7375      16.246     5.32578     145.703    0.135923     1068.45     1610.03     423.541     707.061     91.9057     115.378     16.5375     100.482     64.7589  0.00392564     80.5055     581.197     17.6091      2619.3
    749.152     87.8474     77.6943     128.388     12.1376     10.8992    0.001766     114.575     9.84491     15.6235     121.491     282.072     331.166      62.114     145.771     16.2286     7.62007      18.793     17.8197     6.20401     5.36344     17.7729     1.40623     154.609     13.9457     398.212     183.817      317.35    0.330327     57.0591     156.837     6.97157     5.74788     50.2641     167.055    0.970193     20.6213     780.194     339.711     3.48224     245.297     47.8271     144.672     1.29478     24.7324     134.717     16.8865     30.4941     435.952     205.864     205.868      435.95     30.4945     16.8829     134.725     24.7354     1.29426     144.659     47.8354     245.288     3.48083     339.804     780.225     20.6073     0.96789     167.071      50.268     5.74769     6.97911     156.859     57.0541    0.329204     317.439     183.819     398.272     13.9468     154.645     1.40116     17.7767     5.35645     6.20429     17.8304      18.793     7.64493     16.1959     145.752     62.0803     331.355     282.155     121.486     15.6382     9.84249     114.552  0.00175647     10.9003     12.1379     128.469     77.7252     87.8621     749.158
